#-----------------------------------------------------------------------
#
#			SUBROUTINE NH4SH_REFIND
#
#	Returns the real and imaginary parts of the index of refraction 
#	of NH4SH. Data is taken from a file of Andy Collard's given by
#       Barbara Carlson.
#       Wavelengths are supplied in microns. 
#       The table lists indices in order of wavelength   real  and 
#       imaginary index.
#
#-----------------------------------------------------------------------
0.5000  1.750  0.1000E-08 
1.0000  1.750  0.1000E-08 
2.6385  2.194  0.2660E-01 
2.6455  2.194  0.2370E-01 
2.6525  2.194  0.2080E-01 
2.6596  2.193  0.1790E-01 
2.6667  2.190  0.1500E-01 
2.6738  2.189  0.1710E-01 
2.6810  2.189  0.1440E-01 
2.6882  2.187  0.1210E-01 
2.6954  2.185  0.1150E-01 
2.7027  2.184  0.1210E-01 
2.7100  2.183  0.8500E-02 
2.7174  2.180  0.8200E-02 
2.7248  2.179  0.9200E-02 
2.7322  2.178  0.6100E-02 
2.7397  2.176  0.5500E-02 
2.7473  2.174  0.6200E-02 
2.7548  2.172  0.3700E-02 
2.7624  2.170  0.5000E-02 
2.7701  2.168  0.3100E-02 
2.7778  2.165  0.3400E-02 
2.7855  2.163  0.3400E-02 
2.7933  2.161  0.3100E-02 
2.8011  2.159  0.2500E-02 
2.8090  2.156  0.3200E-02 
2.8169  2.154  0.2800E-02 
2.8249  2.150  0.3200E-02 
2.8329  2.150  0.3200E-02 
2.8409  2.150  0.3200E-02 
2.8490  2.145  0.3200E-02 
2.8571  2.143  0.3500E-02 
2.8653  2.140  0.3200E-02 
2.8736  2.138  0.3200E-02 
2.8818  2.134  0.3200E-02 
2.8902  2.131  0.4500E-02 
2.8986  2.129  0.5900E-02 
2.9070  2.126  0.4900E-02 
2.9155  2.122  0.6500E-02 
2.9240  2.119  0.6600E-02 
2.9326  2.115  0.6600E-02 
2.9412  2.110  0.9600E-02 
2.9499  2.106  0.1030E-01 
2.9586  2.102  0.1330E-01 
2.9674  2.098  0.1600E-01 
2.9762  2.094  0.2000E-01 
2.9851  2.093  0.2680E-01 
2.9940  2.094  0.2690E-01 
3.0030  2.090  0.2560E-01 
3.0120  2.087  0.3040E-01 
3.0211  2.087  0.3390E-01 
3.0303  2.085  0.3130E-01 
3.0395  2.081  0.3070E-01 
3.0488  2.074  0.3150E-01 
3.0581  2.068  0.3430E-01 
3.0675  2.062  0.3720E-01 
3.0769  2.057  0.4140E-01 
3.0864  2.052  0.4500E-01 
3.0960  2.046  0.4860E-01 
3.1056  2.041  0.5440E-01 
3.1153  2.036  0.5940E-01 
3.1250  2.031  0.6310E-01 
3.1348  2.025  0.6680E-01 
3.1447  2.017  0.7060E-01 
3.1546  2.005  0.7430E-01 
3.1646  1.992  0.8810E-01 
3.1746  1.981  0.9970E-01 
3.1847  1.970  0.1179E+00 
3.1949  1.956  0.1362E+00 
3.2051  1.951  0.1798E+00 
3.2154  1.967  0.2165E+00 
3.2258  2.016  0.2570E+00 
3.2362  2.056  0.2251E+00 
3.2468  2.081  0.2077E+00 
3.2573  2.083  0.1681E+00 
3.2680  2.035  0.1027E+00 
3.2787  1.971  0.1516E+00 
3.2895  1.949  0.1845E+00 
3.3003  1.936  0.2222E+00 
3.3113  1.925  0.2601E+00 
3.3223  1.937  0.3206E+00 
3.3333  1.968  0.3531E+00 
3.3445  1.998  0.3678E+00 
3.3557  2.013  0.3735E+00 
3.3670  2.015  0.3861E+00 
3.3784  2.015  0.4170E+00 
3.3898  2.035  0.4678E+00 
3.4014  2.076  0.5038E+00 
3.4130  2.117  0.5208E+00 
3.4247  2.164  0.5572E+00
3.4364  2.244  0.5861E+00 
3.4483  2.351  0.5688E+00 
3.4602  2.429  0.4775E+00 
3.4722  2.427  0.3584E+00 
3.4843  2.383  0.3245E+00 
3.4965  2.344  0.3021E+00 
3.5088  2.317  0.3087E+00 
3.5211  2.293  0.3200E+00 
3.5336  2.291  0.3489E+00 
3.5461  2.278  0.3621E+00 
3.5587  2.257  0.4033E+00 
3.5714  2.347  0.5690E+00 
3.5842  2.516  0.5228E+00 
3.5971  2.588  0.3794E+00 
3.6101  2.576  0.3160E+00 
3.6232  2.560  0.2602E+00 
3.6364  2.545  0.2366E+00 
3.6496  2.534  0.2088E+00 
3.6630  2.524  0.1891E+00 
3.6765  2.517  0.1774E+00 
3.6900  2.513  0.1573E+00 
3.7037  2.507  0.1413E+00 
3.7175  2.499  0.1251E+00 
3.7313  2.489  0.1089E+00 
3.7453  2.479  0.1009E+00 
3.7594  2.470  0.8860E-01 
3.7736  2.461  0.8210E-01 
3.7879  2.453  0.7480E-01 
3.8023  2.446  0.6830E-01 
3.8168  2.437  0.6340E-01 
3.8314  2.432  0.5930E-01 
3.8462  2.426  0.5440E-01 
3.8610  2.422  0.5030E-01 
3.8760  2.415  0.4350E-01 
3.8911  2.406  0.3930E-01 
3.9063  2.403  0.4650E-01 
3.9216  2.403  0.3520E-01 
3.9370  2.398  0.3360E-01 
3.9526  2.392  0.2660E-01 
3.9683  2.386  0.2490E-01 
3.9841  2.381  0.2370E-01 
4.0000  2.378  0.2240E-01 
4.0161  2.373  0.1890E-01 
4.0323  2.369  0.1810E-01 
4.0486  2.365  0.1730E-01 
4.0650  2.362  0.1600E-01 
4.0816  2.358  0.1370E-01 
4.0984  2.355  0.1240E-01 
4.1152  2.351  0.1060E-01 
4.1322  2.348  0.9700E-02 
4.1494  2.345  0.8800E-02 
4.1667  2.342  0.7500E-02 
4.1841  2.339  0.6100E-02 
4.2017  2.336  0.5200E-02 
4.2194  2.332  0.4700E-02 
4.2373  2.330  0.4300E-02 
4.2553  2.327  0.2900E-02 
4.2735  2.324  0.1900E-02 
4.2918  2.320  0.1400E-02 
4.3103  2.317  0.1500E-02 
4.3290  2.314  0.1500E-02 
4.3478  2.311  0.1500E-02 
4.3668  2.308  0.2000E-02 
4.3860  2.305  0.3000E-02 
4.4053  2.303  0.4000E-02 
4.4248  2.302  0.4500E-02 
4.4444  2.300  0.5000E-02 
4.4643  2.300  0.5000E-02 
4.4843  2.297  0.3000E-02 
4.5045  2.295  0.3000E-02 
4.5249  2.292  0.3600E-02 
4.5455  2.290  0.3100E-02 
4.5662  2.287  0.3100E-02 
4.5872  2.285  0.3100E-02 
4.6083  2.281  0.3600E-02 
4.6296  2.277  0.4700E-02 
4.6512  2.273  0.7800E-02 
4.6729  2.270  0.1150E-01 
4.6948  2.268  0.1740E-01 
4.7170  2.269  0.2120E-01 
4.7393  2.270  0.2550E-01 
4.7619  2.273  0.2940E-01 
4.7847  2.276  0.3060E-01 
4.8077  2.281  0.3180E-01 
4.8309  2.284  0.2930E-01 
4.8544  2.286  0.2720E-01 
4.8780  2.286  0.2190E-01 
4.9020  2.285  0.2200E-01 
4.9261  2.285  0.2100E-01 
4.9505  2.285  0.1780E-01
4.9751  2.283  0.1560E-01 
5.0000  2.282  0.1350E-01 
5.0251  2.279  0.1130E-01 
5.0505  2.276  0.1130E-01 
5.0761  2.273  0.1140E-01 
5.1020  2.271  0.1030E-01 
5.1282  2.268  0.1040E-01 
5.1546  2.265  0.1040E-01 
5.1813  2.261  0.1050E-01 
5.2083  2.257  0.1170E-01 
5.2356  2.251  0.1410E-01 
5.2632  2.246  0.2010E-01 
5.2910  2.242  0.2610E-01 
5.3191  2.243  0.3580E-01 
5.3476  2.244  0.4200E-01 
5.3763  2.248  0.4830E-01 
5.4054  2.250  0.5460E-01 
5.4348  2.258  0.6220E-01 
5.4645  2.262  0.6380E-01 
5.4945  2.273  0.7400E-01 
5.5249  2.296  0.8310E-01 
5.5556  2.318  0.5610E-01 
5.5866  2.315  0.3130E-01 
5.6180  2.306  0.2270E-01 
5.6497  2.299  0.1900E-01 
5.6818  2.294  0.1400E-01 
5.7143  2.288  0.1280E-01 
5.7471  2.285  0.1290E-01 
5.7803  2.281  0.1300E-01 
5.8140  2.278  0.1040E-01 
5.8480  2.276  0.1440E-01 
5.8824  2.277  0.1190E-01 
5.9172  2.271  0.6600E-02 
5.9524  2.269  0.1340E-01 
5.9880  2.264  0.9400E-02 
6.0241  2.264  0.1760E-01 
6.0606  2.265  0.2040E-01 
6.0976  2.267  0.1370E-01 
6.1350  2.267  0.2200E-01 
6.1728  2.272  0.1250E-01 
6.2112  2.267  0.7000E-02 
6.2500  2.262  0.7000E-02 
6.2893  2.258  0.7100E-02 
6.3291  2.257  0.5700E-02 
6.3694  2.252  0.5700E-02 
6.4103  2.250  0.5000E-02 
6.4516  2.245  0.4300E-02 
6.4935  2.242  0.1500E-02 
6.5359  2.233  0.0000E+00 
6.5789  2.227  0.3000E-02 
6.6225  2.217  0.3000E-02 
6.6667  2.211  0.6700E-02 
6.7114  2.197  0.9000E-02 
6.7568  2.189  0.1520E-01 
6.8027  2.170  0.2290E-01 
6.8493  2.158  0.3070E-01 
6.8966  2.119  0.4640E-01 
6.9444  2.041  0.7010E-01 
6.9832  2.044  0.2523E+00 
6.9930  2.096  0.2982E+00 
7.0028  2.156  0.2672E+00 
7.0323  2.147  0.1736E+00 
7.0423  2.040  0.1422E+00 
7.0472  2.001  0.2024E+00 
7.0872  2.176  0.6870E+00 
7.0922  2.331  0.7480E+00 
7.0972  2.431  0.6897E+00 
7.1429  2.626  0.1603E+00 
7.1942  2.472  0.6460E-01 
7.2464  2.397  0.5850E-01 
7.2993  2.388  0.4910E-01 
7.3529  2.370  0.3300E-01 
7.4074  2.360  0.2490E-01 
7.4627  2.343  0.1670E-01 
7.5188  2.335  0.1690E-01 
7.5758  2.325  0.1530E-01 
7.6336  2.322  0.1460E-01 
7.6923  2.314  0.1380E-01 
7.7519  2.312  0.1300E-01 
7.8125  2.306  0.1230E-01 
7.8740  2.304  0.1240E-01 
7.9365  2.300  0.1250E-01 
8.0000  2.299  0.1260E-01 
8.0645  2.295  0.1090E-01 
8.1301  2.293  0.1280E-01 
8.1967  2.291  0.1290E-01 
8.2645  2.290  0.1300E-01 
8.3333  2.287  0.1220E-01 
8.4034  2.285  0.1320E-01 
8.4746  2.282  0.1520E-01
8.5470  2.282  0.1730E-01 
8.6207  2.281  0.1740E-01 
8.6957  2.281  0.1850E-01 
8.7719  2.280  0.1970E-01 
8.8496  2.280  0.1990E-01 
8.9286  2.280  0.2000E-01 
9.0090  2.279  0.2020E-01 
9.0909  2.278  0.2040E-01 
9.1743  2.271  0.2060E-01 
9.2593  2.267  0.3120E-01 
9.3458  2.288  0.5870E-01 
9.4340  2.303  0.2120E-01 
9.5238  2.295  0.1820E-01 
9.6154  2.289  0.1940E-01 
9.7087  2.289  0.1530E-01 
9.8039  2.286  0.1760E-01 
9.9010  2.290  0.1780E-01 
10.0000  2.287  0.9000E-02 
10.1010  2.282  0.9100E-02 
10.2040  2.278  0.1140E-01 
10.3090  2.277  0.1270E-01 
10.4170  2.275  0.1520E-01 
10.5260  2.276  0.1650E-01 
10.6380  2.275  0.1790E-01 
10.7530  2.275  0.1930E-01 
10.8700  2.276  0.2200E-01 
10.9890  2.279  0.2220E-01 
11.1110  2.280  0.2120E-01 
11.2360  2.282  0.2270E-01 
11.3640  2.285  0.2300E-01 
11.4940  2.289  0.1810E-01 
11.6280  2.289  0.1300E-01 
11.7650  2.288  0.1060E-01 
11.9050  2.286  0.5300E-02 
12.0480  2.283  0.4100E-02 
12.1950  2.281  0.2700E-02 
12.3460  2.278  0.1400E-02 
12.5000  2.276  0.1400E-02 
12.6580  2.274  0.0000E+00 
12.8210  2.271  0.0000E+00 
12.9870  2.269  0.0000E+00 
13.1580  2.267  0.0000E+00 
13.3330  2.265  0.0000E+00 
13.5140  2.263  0.0000E+00 
13.6990  2.261  0.0000E+00 
13.8890  2.259  0.0000E+00 
14.0850  2.257  0.0000E+00 
14.2860  2.255  0.0000E+00 
14.4930  2.251  0.0000E+00 
14.7060  2.249  0.0000E+00 
14.9250  2.243  0.0000E+00 
15.1520  2.240  0.3400E-02 
15.3850  2.235  0.6900E-02 
15.6250  2.234  0.1050E-01 
15.8730  2.229  0.1420E-01 
16.1290  2.226  0.1810E-01 
16.3930  2.229  0.3680E-01 
16.6670  2.239  0.2990E-01 
16.9490  2.240  0.3040E-01 
17.2410  2.244  0.2710E-01 
17.5440  2.239  0.1970E-01 
17.8570  2.236  0.2000E-01 
18.1820  2.232  0.2040E-01 
18.5190  2.225  0.6200E-02 
18.8680  2.208  0.1480E-01 
19.2310  2.200  0.1290E-01 
19.6080  2.167  0.1320E-01 
20.0000  2.157  0.5160E-01 
20.4080  2.174  0.9160E-01 
20.8330  2.147  0.1400E-01 
21.2770  2.080  0.1194E+00 
21.7390  2.079  0.1951E+00 
22.2220  2.213  0.3491E+00 
22.7270  2.213  0.3491E+00 
23.0000  2.213  0.3491E+00 
25.0000  2.213  0.3491E+00 
30.0000  2.213  0.3491E+00 
35.0000  2.213  0.3491E+00 
40.0000  2.213  0.3491E+00 
45.0000  2.213  0.3491E+00 
50.0000  2.213  0.3491E+00 
60.0000  2.213  0.3491E+00 
70.0000  2.213  0.3491E+00 
80.0000  2.213  0.3491E+00 
90.0000  2.213  0.3491E+00 
100.0000  2.213  0.3491E+00 
120.0000  2.213  0.3491E+00 
150.0000  2.213  0.3491E+00 
200.0000  2.213  0.3491E+00 
250.0000  2.213  0.3491E+00
300.0000  2.213  0.3491E+00 
400.0000  2.213  0.3491E+00 
500.0000  2.213  0.3491E+00 
999.9900  2.213  0.3491E+00
