# Melting Snow Albedo
# From the USGS Spectral Library
0.3500  0.8172
0.3510  0.8173
0.3520  0.8213
0.3530  0.8240
0.3540  0.8239
0.3550  0.8203
0.3560  0.8158
0.3570  0.8133
0.3580  0.8149
0.3590  0.8185
0.3600  0.8211
0.3610  0.8202
0.3620  0.8172
0.3630  0.8141
0.3640  0.8126
0.3650  0.8124
0.3660  0.8129
0.3670  0.8137
0.3680  0.8141
0.3690  0.8139
0.3700  0.8128
0.3710  0.8114
0.3720  0.8103
0.3730  0.8102
0.3740  0.8106
0.3750  0.8110
0.3760  0.8109
0.3770  0.8104
0.3780  0.8095
0.3790  0.8082
0.3800  0.8070
0.3810  0.8064
0.3820  0.8065
0.3830  0.8072
0.3840  0.8078
0.3850  0.8080
0.3860  0.8079
0.3870  0.8077
0.3880  0.8075
0.3890  0.8077
0.3900  0.8084
0.3910  0.8099
0.3920  0.8114
0.3930  0.8125
0.3940  0.8127
0.3950  0.8125
0.3960  0.8126
0.3970  0.8135
0.3980  0.8151
0.3990  0.8171
0.4000  0.8192
0.4010  0.8213
0.4020  0.8231
0.4030  0.8245
0.4040  0.8255
0.4050  0.8264
0.4060  0.8270
0.4070  0.8276
0.4080  0.8279
0.4090  0.8281
0.4100  0.8282
0.4110  0.8282
0.4120  0.8281
0.4130  0.8281
0.4140  0.8283
0.4150  0.8286
0.4160  0.8291
0.4170  0.8297
0.4180  0.8302
0.4190  0.8306
0.4200  0.8311
0.4210  0.8315
0.4220  0.8317
0.4230  0.8319
0.4240  0.8318
0.4250  0.8316
0.4260  0.8316
0.4270  0.8318
0.4280  0.8322
0.4290  0.8327
0.4300  0.8331
0.4310  0.8334
0.4320  0.8337
0.4330  0.8339
0.4340  0.8341
0.4350  0.8342
0.4360  0.8342
0.4370  0.8342
0.4380  0.8342
0.4390  0.8341
0.4400  0.8340
0.4410  0.8339
0.4420  0.8337
0.4430  0.8335
0.4440  0.8333
0.4450  0.8331
0.4460  0.8329
0.4470  0.8329
0.4480  0.8329
0.4490  0.8330
0.4500  0.8331
0.4510  0.8330
0.4520  0.8329
0.4530  0.8329
0.4540  0.8330
0.4550  0.8331
0.4560  0.8332
0.4570  0.8332
0.4580  0.8332
0.4590  0.8330
0.4600  0.8330
0.4610  0.8329
0.4620  0.8329
0.4630  0.8330
0.4640  0.8332
0.4650  0.8332
0.4660  0.8332
0.4670  0.8332
0.4680  0.8332
0.4690  0.8332
0.4700  0.8333
0.4710  0.8334
0.4720  0.8334
0.4730  0.8334
0.4740  0.8332
0.4750  0.8330
0.4760  0.8329
0.4770  0.8328
0.4780  0.8330
0.4790  0.8333
0.4800  0.8334
0.4810  0.8333
0.4820  0.8330
0.4830  0.8327
0.4840  0.8326
0.4850  0.8326
0.4860  0.8327
0.4870  0.8327
0.4880  0.8327
0.4890  0.8327
0.4900  0.8326
0.4910  0.8325
0.4920  0.8324
0.4930  0.8323
0.4940  0.8322
0.4950  0.8322
0.4960  0.8322
0.4970  0.8322
0.4980  0.8322
0.4990  0.8322
0.5000  0.8321
0.5010  0.8321
0.5020  0.8320
0.5030  0.8319
0.5040  0.8319
0.5050  0.8319
0.5060  0.8319
0.5070  0.8318
0.5080  0.8318
0.5090  0.8317
0.5100  0.8317
0.5110  0.8317
0.5120  0.8318
0.5130  0.8318
0.5140  0.8317
0.5150  0.8316
0.5160  0.8315
0.5170  0.8316
0.5180  0.8316
0.5190  0.8318
0.5200  0.8318
0.5210  0.8319
0.5220  0.8319
0.5230  0.8318
0.5240  0.8318
0.5250  0.8318
0.5260  0.8319
0.5270  0.8320
0.5280  0.8321
0.5290  0.8321
0.5300  0.8320
0.5310  0.8319
0.5320  0.8319
0.5330  0.8319
0.5340  0.8319
0.5350  0.8319
0.5360  0.8319
0.5370  0.8319
0.5380  0.8320
0.5390  0.8320
0.5400  0.8321
0.5410  0.8322
0.5420  0.8322
0.5430  0.8322
0.5440  0.8323
0.5450  0.8323
0.5460  0.8323
0.5470  0.8323
0.5480  0.8324
0.5490  0.8324
0.5500  0.8324
0.5510  0.8324
0.5520  0.8324
0.5530  0.8324
0.5540  0.8324
0.5550  0.8325
0.5560  0.8325
0.5570  0.8326
0.5580  0.8327
0.5590  0.8326
0.5600  0.8326
0.5610  0.8325
0.5620  0.8325
0.5630  0.8326
0.5640  0.8326
0.5650  0.8326
0.5660  0.8325
0.5670  0.8324
0.5680  0.8324
0.5690  0.8323
0.5700  0.8323
0.5710  0.8322
0.5720  0.8321
0.5730  0.8321
0.5740  0.8321
0.5750  0.8322
0.5760  0.8324
0.5770  0.8326
0.5780  0.8328
0.5790  0.8328
0.5800  0.8325
0.5810  0.8322
0.5820  0.8319
0.5830  0.8316
0.5840  0.8315
0.5850  0.8315
0.5860  0.8315
0.5870  0.8315
0.5880  0.8315
0.5890  0.8314
0.5900  0.8313
0.5910  0.8311
0.5920  0.8310
0.5930  0.8310
0.5940  0.8309
0.5950  0.8308
0.5960  0.8306
0.5970  0.8304
0.5980  0.8302
0.5990  0.8300
0.6000  0.8298
0.6010  0.8297
0.6020  0.8296
0.6030  0.8296
0.6040  0.8294
0.6050  0.8293
0.6060  0.8291
0.6070  0.8290
0.6080  0.8289
0.6090  0.8289
0.6100  0.8288
0.6110  0.8288
0.6120  0.8287
0.6130  0.8286
0.6140  0.8284
0.6150  0.8282
0.6160  0.8281
0.6170  0.8279
0.6180  0.8277
0.6190  0.8276
0.6200  0.8274
0.6210  0.8272
0.6220  0.8271
0.6230  0.8268
0.6240  0.8266
0.6250  0.8264
0.6260  0.8262
0.6270  0.8260
0.6280  0.8257
0.6290  0.8255
0.6300  0.8253
0.6310  0.8251
0.6320  0.8250
0.6330  0.8248
0.6340  0.8246
0.6350  0.8244
0.6360  0.8242
0.6370  0.8240
0.6380  0.8238
0.6390  0.8236
0.6400  0.8235
0.6410  0.8233
0.6420  0.8232
0.6430  0.8230
0.6440  0.8228
0.6450  0.8226
0.6460  0.8224
0.6470  0.8222
0.6480  0.8220
0.6490  0.8218
0.6500  0.8217
0.6510  0.8215
0.6520  0.8213
0.6530  0.8211
0.6540  0.8208
0.6550  0.8206
0.6560  0.8205
0.6570  0.8203
0.6580  0.8201
0.6590  0.8199
0.6600  0.8198
0.6610  0.8196
0.6620  0.8194
0.6630  0.8193
0.6640  0.8191
0.6650  0.8190
0.6660  0.8189
0.6670  0.8188
0.6680  0.8187
0.6690  0.8186
0.6700  0.8184
0.6710  0.8183
0.6720  0.8182
0.6730  0.8181
0.6740  0.8180
0.6750  0.8180
0.6760  0.8178
0.6770  0.8177
0.6780  0.8176
0.6790  0.8175
0.6800  0.8175
0.6810  0.8175
0.6820  0.8174
0.6830  0.8174
0.6840  0.8173
0.6850  0.8172
0.6860  0.8171
0.6870  0.8170
0.6880  0.8170
0.6890  0.8170
0.6900  0.8170
0.6910  0.8169
0.6920  0.8168
0.6930  0.8167
0.6940  0.8166
0.6950  0.8165
0.6960  0.8163
0.6970  0.8162
0.6980  0.8161
0.6990  0.8160
0.7000  0.8159
0.7010  0.8157
0.7020  0.8155
0.7030  0.8153
0.7040  0.8151
0.7050  0.8150
0.7060  0.8148
0.7070  0.8146
0.7080  0.8145
0.7090  0.8143
0.7100  0.8142
0.7110  0.8140
0.7120  0.8139
0.7130  0.8137
0.7140  0.8136
0.7150  0.8134
0.7160  0.8133
0.7170  0.8132
0.7180  0.8131
0.7190  0.8130
0.7200  0.8129
0.7210  0.8128
0.7220  0.8127
0.7230  0.8125
0.7240  0.8124
0.7250  0.8122
0.7260  0.8121
0.7270  0.8119
0.7280  0.8118
0.7290  0.8117
0.7300  0.8115
0.7310  0.8112
0.7320  0.8110
0.7330  0.8107
0.7340  0.8105
0.7350  0.8103
0.7360  0.8102
0.7370  0.8100
0.7380  0.8097
0.7390  0.8094
0.7400  0.8091
0.7410  0.8087
0.7420  0.8084
0.7430  0.8081
0.7440  0.8078
0.7450  0.8074
0.7460  0.8070
0.7470  0.8065
0.7480  0.8060
0.7490  0.8056
0.7500  0.8051
0.7510  0.8046
0.7520  0.8041
0.7530  0.8036
0.7540  0.8030
0.7550  0.8024
0.7560  0.8017
0.7570  0.8010
0.7580  0.8003
0.7590  0.7995
0.7600  0.7988
0.7610  0.7981
0.7620  0.7973
0.7630  0.7965
0.7640  0.7957
0.7650  0.7949
0.7660  0.7941
0.7670  0.7933
0.7680  0.7925
0.7690  0.7916
0.7700  0.7907
0.7710  0.7899
0.7720  0.7890
0.7730  0.7881
0.7740  0.7872
0.7750  0.7863
0.7760  0.7855
0.7770  0.7847
0.7780  0.7839
0.7790  0.7831
0.7800  0.7823
0.7810  0.7815
0.7820  0.7807
0.7830  0.7799
0.7840  0.7792
0.7850  0.7784
0.7860  0.7778
0.7870  0.7772
0.7880  0.7766
0.7890  0.7761
0.7900  0.7755
0.7910  0.7750
0.7920  0.7745
0.7930  0.7740
0.7940  0.7737
0.7950  0.7734
0.7960  0.7731
0.7970  0.7728
0.7980  0.7724
0.7990  0.7722
0.8000  0.7719
0.8010  0.7718
0.8020  0.7716
0.8030  0.7716
0.8040  0.7715
0.8050  0.7715
0.8060  0.7716
0.8070  0.7716
0.8080  0.7716
0.8090  0.7717
0.8100  0.7718
0.8110  0.7720
0.8120  0.7723
0.8130  0.7725
0.8140  0.7726
0.8150  0.7727
0.8160  0.7729
0.8170  0.7731
0.8180  0.7733
0.8190  0.7735
0.8200  0.7736
0.8210  0.7737
0.8220  0.7738
0.8230  0.7739
0.8240  0.7739
0.8250  0.7740
0.8260  0.7741
0.8270  0.7741
0.8280  0.7741
0.8290  0.7740
0.8300  0.7739
0.8310  0.7738
0.8320  0.7737
0.8330  0.7736
0.8340  0.7734
0.8350  0.7732
0.8360  0.7729
0.8370  0.7725
0.8380  0.7722
0.8390  0.7720
0.8400  0.7717
0.8410  0.7713
0.8420  0.7708
0.8430  0.7702
0.8440  0.7696
0.8450  0.7689
0.8460  0.7682
0.8470  0.7675
0.8480  0.7668
0.8490  0.7661
0.8500  0.7651
0.8510  0.7641
0.8520  0.7631
0.8530  0.7620
0.8540  0.7609
0.8550  0.7598
0.8560  0.7587
0.8570  0.7575
0.8580  0.7562
0.8590  0.7549
0.8600  0.7536
0.8610  0.7523
0.8620  0.7509
0.8630  0.7496
0.8640  0.7482
0.8650  0.7469
0.8660  0.7455
0.8670  0.7440
0.8680  0.7426
0.8690  0.7412
0.8700  0.7397
0.8710  0.7382
0.8720  0.7366
0.8730  0.7351
0.8740  0.7336
0.8750  0.7320
0.8760  0.7305
0.8770  0.7288
0.8780  0.7271
0.8790  0.7255
0.8800  0.7239
0.8810  0.7223
0.8820  0.7209
0.8830  0.7194
0.8840  0.7179
0.8850  0.7165
0.8860  0.7151
0.8870  0.7138
0.8880  0.7125
0.8890  0.7113
0.8900  0.7102
0.8910  0.7091
0.8920  0.7081
0.8930  0.7071
0.8940  0.7061
0.8950  0.7051
0.8960  0.7042
0.8970  0.7033
0.8980  0.7025
0.8990  0.7018
0.9000  0.7012
0.9010  0.7006
0.9020  0.7001
0.9030  0.6996
0.9040  0.6990
0.9050  0.6984
0.9060  0.6979
0.9070  0.6976
0.9080  0.6973
0.9090  0.6971
0.9100  0.6968
0.9110  0.6963
0.9120  0.6958
0.9130  0.6952
0.9140  0.6946
0.9150  0.6942
0.9160  0.6939
0.9170  0.6937
0.9180  0.6934
0.9190  0.6930
0.9200  0.6925
0.9210  0.6919
0.9220  0.6914
0.9230  0.6909
0.9240  0.6905
0.9250  0.6901
0.9260  0.6897
0.9270  0.6892
0.9280  0.6885
0.9290  0.6878
0.9300  0.6871
0.9310  0.6865
0.9320  0.6858
0.9330  0.6852
0.9340  0.6844
0.9350  0.6836
0.9360  0.6827
0.9370  0.6819
0.9380  0.6809
0.9390  0.6799
0.9400  0.6788
0.9410  0.6775
0.9420  0.6762
0.9430  0.6749
0.9440  0.6734
0.9450  0.6716
0.9460  0.6695
0.9470  0.6672
0.9480  0.6652
0.9490  0.6636
0.9500  0.6622
0.9510  0.6606
0.9520  0.6587
0.9530  0.6566
0.9540  0.6541
0.9550  0.6515
0.9560  0.6489
0.9570  0.6464
0.9580  0.6442
0.9590  0.6421
0.9600  0.6403
0.9610  0.6386
0.9620  0.6368
0.9630  0.6348
0.9640  0.6324
0.9650  0.6297
0.9660  0.6270
0.9670  0.6243
0.9680  0.6218
0.9690  0.6193
0.9700  0.6167
0.9710  0.6141
0.9720  0.6115
0.9730  0.6087
0.9740  0.6059
0.9750  0.6030
0.9760  0.5999
0.9770  0.5969
0.9780  0.5938
0.9790  0.5908
0.9800  0.5878
0.9810  0.5850
0.9820  0.5822
0.9830  0.5794
0.9840  0.5766
0.9850  0.5736
0.9860  0.5706
0.9870  0.5677
0.9880  0.5650
0.9890  0.5625
0.9900  0.5601
0.9910  0.5576
0.9920  0.5550
0.9930  0.5522
0.9940  0.5492
0.9950  0.5460
0.9960  0.5430
0.9970  0.5404
0.9980  0.5381
0.9990  0.5360
1.0000  0.5339
1.0010  0.5318
1.0020  0.5299
1.0030  0.5280
1.0040  0.5263
1.0050  0.5246
1.0060  0.5229
1.0070  0.5212
1.0080  0.5195
1.0090  0.5178
1.0100  0.5162
1.0110  0.5148
1.0120  0.5137
1.0130  0.5126
1.0140  0.5117
1.0150  0.5106
1.0160  0.5095
1.0170  0.5084
1.0180  0.5075
1.0190  0.5067
1.0200  0.5061
1.0210  0.5056
1.0220  0.5053
1.0230  0.5051
1.0240  0.5049
1.0250  0.5049
1.0260  0.5049
1.0270  0.5051
1.0280  0.5055
1.0290  0.5059
1.0300  0.5065
1.0310  0.5072
1.0320  0.5078
1.0330  0.5085
1.0340  0.5092
1.0350  0.5099
1.0360  0.5107
1.0370  0.5118
1.0380  0.5130
1.0390  0.5142
1.0400  0.5156
1.0410  0.5170
1.0420  0.5184
1.0430  0.5199
1.0440  0.5214
1.0450  0.5231
1.0460  0.5249
1.0470  0.5268
1.0480  0.5288
1.0490  0.5308
1.0500  0.5328
1.0510  0.5349
1.0520  0.5370
1.0530  0.5391
1.0540  0.5413
1.0550  0.5434
1.0560  0.5455
1.0570  0.5476
1.0580  0.5498
1.0590  0.5519
1.0600  0.5541
1.0610  0.5562
1.0620  0.5583
1.0630  0.5603
1.0640  0.5624
1.0650  0.5644
1.0660  0.5663
1.0670  0.5681
1.0680  0.5698
1.0690  0.5713
1.0700  0.5728
1.0710  0.5742
1.0720  0.5755
1.0730  0.5767
1.0740  0.5779
1.0750  0.5791
1.0760  0.5802
1.0770  0.5811
1.0780  0.5819
1.0790  0.5825
1.0800  0.5830
1.0810  0.5834
1.0820  0.5838
1.0830  0.5842
1.0840  0.5845
1.0850  0.5846
1.0860  0.5846
1.0870  0.5846
1.0880  0.5844
1.0890  0.5841
1.0900  0.5838
1.0910  0.5834
1.0920  0.5829
1.0930  0.5824
1.0940  0.5820
1.0950  0.5814
1.0960  0.5808
1.0970  0.5801
1.0980  0.5793
1.0990  0.5785
1.1000  0.5778
1.1010  0.5770
1.1020  0.5762
1.1030  0.5754
1.1040  0.5745
1.1050  0.5736
1.1060  0.5728
1.1070  0.5720
1.1080  0.5712
1.1090  0.5703
1.1100  0.5693
1.1110  0.5683
1.1120  0.5674
1.1130  0.5664
1.1140  0.5654
1.1150  0.5644
1.1160  0.5633
1.1170  0.5622
1.1180  0.5611
1.1190  0.5600
1.1200  0.5588
1.1210  0.5576
1.1220  0.5564
1.1230  0.5551
1.1240  0.5537
1.1250  0.5522
1.1260  0.5507
1.1270  0.5490
1.1280  0.5471
1.1290  0.5452
1.1300  0.5432
1.1310  0.5410
1.1320  0.5388
1.1330  0.5365
1.1340  0.5340
1.1350  0.5314
1.1360  0.5286
1.1370  0.5257
1.1380  0.5226
1.1390  0.5195
1.1400  0.5162
1.1410  0.5130
1.1420  0.5096
1.1430  0.5062
1.1440  0.5027
1.1450  0.4991
1.1460  0.4955
1.1470  0.4919
1.1480  0.4882
1.1490  0.4846
1.1500  0.4810
1.1510  0.4774
1.1520  0.4737
1.1530  0.4700
1.1540  0.4661
1.1550  0.4622
1.1560  0.4584
1.1570  0.4545
1.1580  0.4506
1.1590  0.4468
1.1600  0.4429
1.1610  0.4391
1.1620  0.4352
1.1630  0.4314
1.1640  0.4275
1.1650  0.4236
1.1660  0.4197
1.1670  0.4158
1.1680  0.4120
1.1690  0.4081
1.1700  0.4043
1.1710  0.4004
1.1720  0.3966
1.1730  0.3927
1.1740  0.3888
1.1750  0.3850
1.1760  0.3812
1.1770  0.3774
1.1780  0.3738
1.1790  0.3701
1.1800  0.3665
1.1810  0.3629
1.1820  0.3594
1.1830  0.3558
1.1840  0.3523
1.1850  0.3488
1.1860  0.3454
1.1870  0.3420
1.1880  0.3388
1.1890  0.3356
1.1900  0.3324
1.1910  0.3294
1.1920  0.3263
1.1930  0.3233
1.1940  0.3204
1.1950  0.3175
1.1960  0.3146
1.1970  0.3119
1.1980  0.3091
1.1990  0.3065
1.2000  0.3039
1.2010  0.3013
1.2020  0.2989
1.2030  0.2965
1.2040  0.2941
1.2050  0.2918
1.2060  0.2895
1.2070  0.2873
1.2080  0.2852
1.2090  0.2832
1.2100  0.2812
1.2110  0.2793
1.2120  0.2775
1.2130  0.2758
1.2140  0.2741
1.2150  0.2725
1.2160  0.2709
1.2170  0.2694
1.2180  0.2679
1.2190  0.2664
1.2200  0.2651
1.2210  0.2639
1.2220  0.2627
1.2230  0.2616
1.2240  0.2606
1.2250  0.2595
1.2260  0.2586
1.2270  0.2576
1.2280  0.2567
1.2290  0.2557
1.2300  0.2549
1.2310  0.2541
1.2320  0.2533
1.2330  0.2526
1.2340  0.2520
1.2350  0.2514
1.2360  0.2508
1.2370  0.2503
1.2380  0.2497
1.2390  0.2492
1.2400  0.2487
1.2410  0.2483
1.2420  0.2479
1.2430  0.2476
1.2440  0.2472
1.2450  0.2470
1.2460  0.2467
1.2470  0.2465
1.2480  0.2463
1.2490  0.2462
1.2500  0.2461
1.2510  0.2460
1.2520  0.2459
1.2530  0.2459
1.2540  0.2460
1.2550  0.2460
1.2560  0.2460
1.2570  0.2461
1.2580  0.2461
1.2590  0.2463
1.2600  0.2465
1.2610  0.2468
1.2620  0.2470
1.2630  0.2473
1.2640  0.2476
1.2650  0.2479
1.2660  0.2482
1.2670  0.2486
1.2680  0.2489
1.2690  0.2493
1.2700  0.2497
1.2710  0.2501
1.2720  0.2506
1.2730  0.2510
1.2740  0.2515
1.2750  0.2519
1.2760  0.2523
1.2770  0.2526
1.2780  0.2529
1.2790  0.2532
1.2800  0.2535
1.2810  0.2538
1.2820  0.2541
1.2830  0.2543
1.2840  0.2544
1.2850  0.2546
1.2860  0.2547
1.2870  0.2548
1.2880  0.2548
1.2890  0.2548
1.2900  0.2548
1.2910  0.2548
1.2920  0.2546
1.2930  0.2545
1.2940  0.2543
1.2950  0.2541
1.2960  0.2539
1.2970  0.2537
1.2980  0.2534
1.2990  0.2532
1.3000  0.2528
1.3010  0.2525
1.3020  0.2521
1.3030  0.2517
1.3040  0.2513
1.3050  0.2509
1.3060  0.2505
1.3070  0.2500
1.3080  0.2495
1.3090  0.2490
1.3100  0.2485
1.3110  0.2480
1.3120  0.2475
1.3130  0.2468
1.3140  0.2462
1.3150  0.2456
1.3160  0.2449
1.3170  0.2443
1.3180  0.2436
1.3190  0.2428
1.3200  0.2421
1.3210  0.2413
1.3220  0.2404
1.3230  0.2396
1.3240  0.2388
1.3250  0.2379
1.3260  0.2371
1.3270  0.2362
1.3280  0.2353
1.3290  0.2343
1.3300  0.2334
1.3310  0.2324
1.3320  0.2315
1.3330  0.2305
1.3340  0.2296
1.3350  0.2286
1.3360  0.2276
1.3370  0.2267
1.3380  0.2257
1.3390  0.2247
1.3400  0.2237
1.3410  0.2226
1.3420  0.2216
1.3430  0.2206
1.3440  0.2197
1.3450  0.2187
1.3460  0.2177
1.3470  0.2168
1.3480  0.2158
1.3490  0.2149
1.3500  0.2139
1.3510  0.2129
1.3520  0.2120
1.3530  0.2111
1.3540  0.2101
1.3550  0.2092
1.3560  0.2082
1.3570  0.2073
1.3580  0.2062
1.3590  0.2052
1.3600  0.2041
1.3610  0.2030
1.3620  0.2019
1.3630  0.2007
1.3640  0.1995
1.3650  0.1983
1.3660  0.1970
1.3670  0.1956
1.3680  0.1942
1.3690  0.1926
1.3700  0.1909
1.3710  0.1891
1.3720  0.1872
1.3730  0.1852
1.3740  0.1831
1.3750  0.1809
1.3760  0.1785
1.3770  0.1760
1.3780  0.1733
1.3790  0.1705
1.3800  0.1675
1.3810  0.1644
1.3820  0.1612
1.3830  0.1578
1.3840  0.1544
1.3850  0.1508
1.3860  0.1472
1.3870  0.1435
1.3880  0.1397
1.3890  0.1358
1.3900  0.1319
1.3910  0.1280
1.3920  0.1241
1.3930  0.1202
1.3940  0.1164
1.3950  0.1126
1.3960  0.1089
1.3970  0.1053
1.3980  0.1018
1.3990  0.0983
1.4000  0.0949
1.4010  0.0916
1.4020  0.0883
1.4030  0.0853
1.4040  0.0823
1.4050  0.0794
1.4060  0.0766
1.4070  0.0739
1.4080  0.0713
1.4090  0.0688
1.4100  0.0663
1.4110  0.0639
1.4120  0.0616
1.4130  0.0593
1.4140  0.0572
1.4150  0.0551
1.4160  0.0530
1.4170  0.0511
1.4180  0.0492
1.4190  0.0473
1.4200  0.0455
1.4210  0.0437
1.4220  0.0420
1.4230  0.0404
1.4240  0.0388
1.4250  0.0373
1.4260  0.0358
1.4270  0.0343
1.4280  0.0330
1.4290  0.0316
1.4300  0.0304
1.4310  0.0292
1.4320  0.0280
1.4330  0.0269
1.4340  0.0258
1.4350  0.0247
1.4360  0.0237
1.4370  0.0227
1.4380  0.0218
1.4390  0.0209
1.4400  0.0201
1.4410  0.0193
1.4420  0.0185
1.4430  0.0178
1.4440  0.0171
1.4450  0.0165
1.4460  0.0159
1.4470  0.0153
1.4480  0.0147
1.4490  0.0142
1.4500  0.0137
1.4510  0.0133
1.4520  0.0128
1.4530  0.0124
1.4540  0.0120
1.4550  0.0117
1.4560  0.0113
1.4570  0.0110
1.4580  0.0107
1.4590  0.0104
1.4600  0.0102
1.4610  0.0100
1.4620  0.0098
1.4630  0.0095
1.4640  0.0093
1.4650  0.0092
1.4660  0.0090
1.4670  0.0088
1.4680  0.0086
1.4690  0.0085
1.4700  0.0084
1.4710  0.0082
1.4720  0.0081
1.4730  0.0080
1.4740  0.0079
1.4750  0.0078
1.4760  0.0077
1.4770  0.0077
1.4780  0.0076
1.4790  0.0076
1.4800  0.0075
1.4810  0.0075
1.4820  0.0075
1.4830  0.0074
1.4840  0.0074
1.4850  0.0073
1.4860  0.0073
1.4870  0.0073
1.4880  0.0072
1.4890  0.0072
1.4900  0.0072
1.4910  0.0072
1.4920  0.0072
1.4930  0.0072
1.4940  0.0072
1.4950  0.0072
1.4960  0.0073
1.4970  0.0073
1.4980  0.0073
1.4990  0.0073
1.5000  0.0073
1.5010  0.0074
1.5020  0.0074
1.5030  0.0074
1.5040  0.0074
1.5050  0.0074
1.5060  0.0074
1.5070  0.0075
1.5080  0.0075
1.5090  0.0075
1.5100  0.0076
1.5110  0.0076
1.5120  0.0076
1.5130  0.0077
1.5140  0.0077
1.5150  0.0077
1.5160  0.0078
1.5170  0.0078
1.5180  0.0079
1.5190  0.0079
1.5200  0.0079
1.5210  0.0079
1.5220  0.0080
1.5230  0.0080
1.5240  0.0080
1.5250  0.0081
1.5260  0.0081
1.5270  0.0081
1.5280  0.0082
1.5290  0.0082
1.5300  0.0083
1.5310  0.0084
1.5320  0.0084
1.5330  0.0085
1.5340  0.0085
1.5350  0.0086
1.5360  0.0086
1.5370  0.0087
1.5380  0.0087
1.5390  0.0088
1.5400  0.0089
1.5410  0.0090
1.5420  0.0090
1.5430  0.0091
1.5440  0.0092
1.5450  0.0093
1.5460  0.0093
1.5470  0.0094
1.5480  0.0095
1.5490  0.0096
1.5500  0.0097
1.5510  0.0098
1.5520  0.0099
1.5530  0.0099
1.5540  0.0100
1.5550  0.0101
1.5560  0.0102
1.5570  0.0103
1.5580  0.0104
1.5590  0.0105
1.5600  0.0106
1.5610  0.0107
1.5620  0.0109
1.5630  0.0110
1.5640  0.0111
1.5650  0.0112
1.5660  0.0113
1.5670  0.0115
1.5680  0.0116
1.5690  0.0117
1.5700  0.0118
1.5710  0.0120
1.5720  0.0121
1.5730  0.0123
1.5740  0.0124
1.5750  0.0126
1.5760  0.0127
1.5770  0.0129
1.5780  0.0130
1.5790  0.0131
1.5800  0.0133
1.5810  0.0135
1.5820  0.0136
1.5830  0.0138
1.5840  0.0139
1.5850  0.0140
1.5860  0.0142
1.5870  0.0144
1.5880  0.0146
1.5890  0.0147
1.5900  0.0149
1.5910  0.0150
1.5920  0.0152
1.5930  0.0153
1.5940  0.0155
1.5950  0.0157
1.5960  0.0158
1.5970  0.0160
1.5980  0.0161
1.5990  0.0163
1.6000  0.0164
1.6010  0.0165
1.6020  0.0166
1.6030  0.0168
1.6040  0.0169
1.6050  0.0171
1.6060  0.0172
1.6070  0.0173
1.6080  0.0175
1.6090  0.0176
1.6100  0.0177
1.6110  0.0178
1.6120  0.0179
1.6130  0.0181
1.6140  0.0182
1.6150  0.0183
1.6160  0.0184
1.6170  0.0185
1.6180  0.0186
1.6190  0.0187
1.6200  0.0188
1.6210  0.0190
1.6220  0.0191
1.6230  0.0192
1.6240  0.0193
1.6250  0.0194
1.6260  0.0195
1.6270  0.0197
1.6280  0.0198
1.6290  0.0199
1.6300  0.0200
1.6310  0.0202
1.6320  0.0203
1.6330  0.0204
1.6340  0.0206
1.6350  0.0207
1.6360  0.0208
1.6370  0.0210
1.6380  0.0211
1.6390  0.0213
1.6400  0.0214
1.6410  0.0216
1.6420  0.0217
1.6430  0.0218
1.6440  0.0220
1.6450  0.0222
1.6460  0.0223
1.6470  0.0225
1.6480  0.0227
1.6490  0.0229
1.6500  0.0230
1.6510  0.0232
1.6520  0.0234
1.6530  0.0235
1.6540  0.0237
1.6550  0.0238
1.6560  0.0240
1.6570  0.0241
1.6580  0.0243
1.6590  0.0245
1.6600  0.0246
1.6610  0.0248
1.6620  0.0250
1.6630  0.0252
1.6640  0.0253
1.6650  0.0255
1.6660  0.0257
1.6670  0.0259
1.6680  0.0261
1.6690  0.0263
1.6700  0.0264
1.6710  0.0266
1.6720  0.0268
1.6730  0.0269
1.6740  0.0271
1.6750  0.0273
1.6760  0.0275
1.6770  0.0276
1.6780  0.0278
1.6790  0.0280
1.6800  0.0282
1.6810  0.0283
1.6820  0.0285
1.6830  0.0287
1.6840  0.0289
1.6850  0.0291
1.6860  0.0293
1.6870  0.0295
1.6880  0.0297
1.6890  0.0299
1.6900  0.0301
1.6910  0.0303
1.6920  0.0305
1.6930  0.0307
1.6940  0.0309
1.6950  0.0311
1.6960  0.0312
1.6970  0.0314
1.6980  0.0316
1.6990  0.0318
1.7000  0.0320
1.7010  0.0322
1.7020  0.0323
1.7030  0.0325
1.7040  0.0326
1.7050  0.0328
1.7060  0.0329
1.7070  0.0331
1.7080  0.0333
1.7090  0.0335
1.7100  0.0337
1.7110  0.0338
1.7120  0.0340
1.7130  0.0341
1.7140  0.0343
1.7150  0.0344
1.7160  0.0346
1.7170  0.0347
1.7180  0.0349
1.7190  0.0350
1.7200  0.0351
1.7210  0.0353
1.7220  0.0354
1.7230  0.0355
1.7240  0.0357
1.7250  0.0358
1.7260  0.0359
1.7270  0.0361
1.7280  0.0362
1.7290  0.0363
1.7300  0.0364
1.7310  0.0365
1.7320  0.0366
1.7330  0.0367
1.7340  0.0368
1.7350  0.0368
1.7360  0.0369
1.7370  0.0370
1.7380  0.0371
1.7390  0.0372
1.7400  0.0373
1.7410  0.0374
1.7420  0.0375
1.7430  0.0375
1.7440  0.0375
1.7450  0.0375
1.7460  0.0375
1.7470  0.0376
1.7480  0.0376
1.7490  0.0376
1.7500  0.0377
1.7510  0.0377
1.7520  0.0377
1.7530  0.0378
1.7540  0.0378
1.7550  0.0379
1.7560  0.0379
1.7570  0.0379
1.7580  0.0379
1.7590  0.0379
1.7600  0.0379
1.7610  0.0380
1.7620  0.0380
1.7630  0.0380
1.7640  0.0381
1.7650  0.0381
1.7660  0.0382
1.7670  0.0382
1.7680  0.0383
1.7690  0.0383
1.7700  0.0384
1.7710  0.0384
1.7720  0.0385
1.7730  0.0386
1.7740  0.0386
1.7750  0.0387
1.7760  0.0388
1.7770  0.0389
1.7780  0.0391
1.7790  0.0393
1.7800  0.0395
1.7810  0.0397
1.7820  0.0398
1.7830  0.0400
1.7840  0.0401
1.7850  0.0403
1.7860  0.0405
1.7870  0.0407
1.7880  0.0408
1.7890  0.0408
1.7900  0.0406
1.7910  0.0403
1.7920  0.0400
1.7930  0.0399
1.7940  0.0398
1.7950  0.0399
1.7960  0.0400
1.7970  0.0402
1.7980  0.0405
1.7990  0.0407
1.8000  0.0408
1.8010  0.0410
1.8020  0.0410
1.8030  0.0411
1.8040  0.0413
1.8050  0.0415
1.8060  0.0417
1.8070  0.0420
1.8080  0.0424
1.8090  0.0427
1.8100  0.0430
1.8110  0.0433
1.8120  0.0435
1.8130  0.0436
1.8140  0.0438
1.8150  0.0439
1.8160  0.0440
1.8170  0.0442
1.8180  0.0443
1.8190  0.0443
1.8200  0.0443
1.8210  0.0442
1.8220  0.0442
1.8230  0.0441
1.8240  0.0442
1.8250  0.0443
1.8260  0.0445
1.8270  0.0447
1.8280  0.0449
1.8290  0.0450
1.8300  0.0451
1.8310  0.0451
1.8320  0.0450
1.8330  0.0449
1.8340  0.0447
1.8350  0.0447
1.8360  0.0446
1.8370  0.0446
1.8380  0.0446
1.8390  0.0445
1.8400  0.0443
1.8410  0.0442
1.8420  0.0440
1.8430  0.0439
1.8440  0.0437
1.8450  0.0435
1.8460  0.0432
1.8470  0.0428
1.8480  0.0422
1.8490  0.0417
1.8500  0.0411
1.8510  0.0405
1.8520  0.0400
1.8530  0.0395
1.8540  0.0391
1.8550  0.0385
1.8560  0.0379
1.8570  0.0372
1.8580  0.0364
1.8590  0.0356
1.8600  0.0347
1.8610  0.0339
1.8620  0.0331
1.8630  0.0322
1.8640  0.0313
1.8650  0.0305
1.8660  0.0296
1.8670  0.0287
1.8680  0.0278
1.8690  0.0269
1.8700  0.0260
1.8710  0.0250
1.8720  0.0240
1.8730  0.0230
1.8740  0.0220
1.8750  0.0211
1.8760  0.0201
1.8770  0.0192
1.8780  0.0184
1.8790  0.0176
1.8800  0.0169
1.8810  0.0161
1.8820  0.0154
1.8830  0.0146
1.8840  0.0139
1.8850  0.0132
1.8860  0.0126
1.8870  0.0121
1.8880  0.0117
1.8890  0.0112
1.8900  0.0107
1.8910  0.0102
1.8920  0.0098
1.8930  0.0094
1.8940  0.0090
1.8950  0.0087
1.8960  0.0084
1.8970  0.0081
1.8980  0.0078
1.8990  0.0075
1.9000  0.0072
1.9010  0.0069
1.9020  0.0068
1.9030  0.0066
1.9040  0.0065
1.9050  0.0064
1.9060  0.0063
1.9070  0.0062
1.9080  0.0061
1.9090  0.0059
1.9100  0.0057
1.9110  0.0056
1.9120  0.0054
1.9130  0.0053
1.9140  0.0051
1.9150  0.0050
1.9160  0.0049
1.9170  0.0048
1.9180  0.0047
1.9190  0.0047
1.9200  0.0046
1.9210  0.0046
1.9220  0.0046
1.9230  0.0046
1.9240  0.0046
1.9250  0.0045
1.9260  0.0045
1.9270  0.0044
1.9280  0.0043
1.9290  0.0043
1.9300  0.0043
1.9310  0.0043
1.9320  0.0043
1.9330  0.0043
1.9340  0.0044
1.9350  0.0045
1.9360  0.0045
1.9370  0.0046
1.9380  0.0046
1.9390  0.0046
1.9400  0.0046
1.9410  0.0045
1.9420  0.0044
1.9430  0.0043
1.9440  0.0042
1.9450  0.0042
1.9460  0.0042
1.9470  0.0043
1.9480  0.0044
1.9490  0.0044
1.9500  0.0044
1.9510  0.0044
1.9520  0.0044
1.9530  0.0043
1.9540  0.0043
1.9550  0.0042
1.9560  0.0042
1.9570  0.0041
1.9580  0.0041
1.9590  0.0041
1.9600  0.0040
1.9610  0.0039
1.9620  0.0040
1.9630  0.0040
1.9640  0.0041
1.9650  0.0042
1.9660  0.0042
1.9670  0.0043
1.9680  0.0042
1.9690  0.0042
1.9700  0.0041
1.9710  0.0041
1.9720  0.0041
1.9730  0.0041
1.9740  0.0041
1.9750  0.0041
1.9760  0.0041
1.9770  0.0041
1.9780  0.0041
1.9790  0.0041
1.9800  0.0041
1.9810  0.0041
1.9820  0.0041
1.9830  0.0041
1.9840  0.0041
1.9850  0.0041
1.9860  0.0041
1.9870  0.0041
1.9880  0.0041
1.9890  0.0042
1.9900  0.0042
1.9910  0.0043
1.9920  0.0044
1.9930  0.0045
1.9940  0.0045
1.9950  0.0045
1.9960  0.0044
1.9970  0.0044
1.9980  0.0043
1.9990  0.0042
2.0000  0.0042
2.0010  0.0041
2.0020  0.0040
2.0030  0.0040
2.0040  0.0040
2.0050  0.0040
2.0060  0.0041
2.0070  0.0042
2.0080  0.0042
2.0090  0.0042
2.0100  0.0043
2.0110  0.0042
2.0120  0.0042
2.0130  0.0043
2.0140  0.0043
2.0150  0.0043
2.0160  0.0043
2.0170  0.0042
2.0180  0.0042
2.0190  0.0041
2.0200  0.0041
2.0210  0.0041
2.0220  0.0042
2.0230  0.0042
2.0240  0.0042
2.0250  0.0043
2.0260  0.0044
2.0270  0.0044
2.0280  0.0044
2.0290  0.0043
2.0300  0.0042
2.0310  0.0041
2.0320  0.0041
2.0330  0.0041
2.0340  0.0041
2.0350  0.0041
2.0360  0.0041
2.0370  0.0042
2.0380  0.0043
2.0390  0.0044
2.0400  0.0044
2.0410  0.0044
2.0420  0.0042
2.0430  0.0040
2.0440  0.0038
2.0450  0.0036
2.0460  0.0036
2.0470  0.0036
2.0480  0.0038
2.0490  0.0039
2.0500  0.0040
2.0510  0.0040
2.0520  0.0040
2.0530  0.0040
2.0540  0.0040
2.0550  0.0040
2.0560  0.0040
2.0570  0.0040
2.0580  0.0040
2.0590  0.0040
2.0600  0.0040
2.0610  0.0040
2.0620  0.0040
2.0630  0.0040
2.0640  0.0040
2.0650  0.0041
2.0660  0.0042
2.0670  0.0044
2.0680  0.0045
2.0690  0.0047
2.0700  0.0047
2.0710  0.0048
2.0720  0.0047
2.0730  0.0047
2.0740  0.0047
2.0750  0.0047
2.0760  0.0047
2.0770  0.0047
2.0780  0.0047
2.0790  0.0046
2.0800  0.0046
2.0810  0.0045
2.0820  0.0044
2.0830  0.0044
2.0840  0.0043
2.0850  0.0043
2.0860  0.0044
2.0870  0.0044
2.0880  0.0045
2.0890  0.0045
2.0900  0.0045
2.0910  0.0046
2.0920  0.0047
2.0930  0.0048
2.0940  0.0049
2.0950  0.0050
2.0960  0.0051
2.0970  0.0051
2.0980  0.0051
2.0990  0.0051
2.1000  0.0052
2.1010  0.0053
2.1020  0.0054
2.1030  0.0054
2.1040  0.0052
2.1050  0.0051
2.1060  0.0051
2.1070  0.0051
2.1080  0.0052
2.1090  0.0054
2.1100  0.0055
2.1110  0.0055
2.1120  0.0055
2.1130  0.0055
2.1140  0.0055
2.1150  0.0055
2.1160  0.0057
2.1170  0.0059
2.1180  0.0060
2.1190  0.0061
2.1200  0.0062
2.1210  0.0063
2.1220  0.0064
2.1230  0.0064
2.1240  0.0064
2.1250  0.0064
2.1260  0.0064
2.1270  0.0065
2.1280  0.0066
2.1290  0.0067
2.1300  0.0068
2.1310  0.0068
2.1320  0.0069
2.1330  0.0070
2.1340  0.0071
2.1350  0.0072
2.1360  0.0074
2.1370  0.0076
2.1380  0.0078
2.1390  0.0079
2.1400  0.0080
2.1410  0.0081
2.1420  0.0082
2.1430  0.0083
2.1440  0.0084
2.1450  0.0084
2.1460  0.0084
2.1470  0.0083
2.1480  0.0083
2.1490  0.0084
2.1500  0.0085
2.1510  0.0087
2.1520  0.0090
2.1530  0.0092
2.1540  0.0094
2.1550  0.0095
2.1560  0.0096
2.1570  0.0097
2.1580  0.0099
2.1590  0.0100
2.1600  0.0100
2.1610  0.0100
2.1620  0.0100
2.1630  0.0100
2.1640  0.0102
2.1650  0.0104
2.1660  0.0107
2.1670  0.0110
2.1680  0.0113
2.1690  0.0115
2.1700  0.0116
2.1710  0.0117
2.1720  0.0118
2.1730  0.0119
2.1740  0.0121
2.1750  0.0123
2.1760  0.0124
2.1770  0.0126
2.1780  0.0127
2.1790  0.0128
2.1800  0.0129
2.1810  0.0130
2.1820  0.0132
2.1830  0.0135
2.1840  0.0137
2.1850  0.0138
2.1860  0.0139
2.1870  0.0139
2.1880  0.0138
2.1890  0.0138
2.1900  0.0138
2.1910  0.0140
2.1920  0.0142
2.1930  0.0144
2.1940  0.0146
2.1950  0.0147
2.1960  0.0149
2.1970  0.0150
2.1980  0.0151
2.1990  0.0152
2.2000  0.0153
2.2010  0.0154
2.2020  0.0154
2.2030  0.0155
2.2040  0.0156
2.2050  0.0158
2.2060  0.0160
2.2070  0.0161
2.2080  0.0162
2.2090  0.0163
2.2100  0.0163
2.2110  0.0165
2.2120  0.0167
2.2130  0.0168
2.2140  0.0170
2.2150  0.0171
2.2160  0.0172
2.2170  0.0173
2.2180  0.0174
2.2190  0.0174
2.2200  0.0175
2.2210  0.0176
2.2220  0.0177
2.2230  0.0178
2.2240  0.0178
2.2250  0.0179
2.2260  0.0180
2.2270  0.0180
2.2280  0.0181
2.2290  0.0180
2.2300  0.0180
2.2310  0.0180
2.2320  0.0182
2.2330  0.0183
2.2340  0.0185
2.2350  0.0186
2.2360  0.0186
2.2370  0.0187
2.2380  0.0187
2.2390  0.0188
2.2400  0.0189
2.2410  0.0190
2.2420  0.0191
2.2430  0.0191
2.2440  0.0190
2.2450  0.0189
2.2460  0.0188
2.2470  0.0189
2.2480  0.0190
2.2490  0.0191
2.2500  0.0192
2.2510  0.0192
2.2520  0.0191
2.2530  0.0190
2.2540  0.0190
2.2550  0.0189
2.2560  0.0188
2.2570  0.0187
2.2580  0.0187
2.2590  0.0186
2.2600  0.0185
2.2610  0.0185
2.2620  0.0183
2.2630  0.0182
2.2640  0.0182
2.2650  0.0181
2.2660  0.0181
2.2670  0.0181
2.2680  0.0180
2.2690  0.0179
2.2700  0.0177
2.2710  0.0175
2.2720  0.0173
2.2730  0.0171
2.2740  0.0169
2.2750  0.0167
2.2760  0.0165
2.2770  0.0163
2.2780  0.0161
2.2790  0.0160
2.2800  0.0159
2.2810  0.0158
2.2820  0.0157
2.2830  0.0155
2.2840  0.0154
2.2850  0.0152
2.2860  0.0151
2.2870  0.0150
2.2880  0.0148
2.2890  0.0146
2.2900  0.0144
2.2910  0.0142
2.2920  0.0140
2.2930  0.0139
2.2940  0.0138
2.2950  0.0136
2.2960  0.0135
2.2970  0.0134
2.2980  0.0132
2.2990  0.0130
2.3000  0.0127
2.3010  0.0124
2.3020  0.0121
2.3030  0.0119
2.3040  0.0117
2.3050  0.0115
2.3060  0.0114
2.3070  0.0114
2.3080  0.0113
2.3090  0.0110
2.3100  0.0108
2.3110  0.0105
2.3120  0.0104
2.3130  0.0103
2.3140  0.0103
2.3150  0.0101
2.3160  0.0100
2.3170  0.0098
2.3180  0.0096
2.3190  0.0096
2.3200  0.0095
2.3210  0.0095
2.3220  0.0095
2.3230  0.0094
2.3240  0.0092
2.3250  0.0090
2.3260  0.0087
2.3270  0.0085
2.3280  0.0083
2.3290  0.0082
2.3300  0.0081
2.3310  0.0081
2.3320  0.0080
2.3330  0.0079
2.3340  0.0078
2.3350  0.0077
2.3360  0.0076
2.3370  0.0075
2.3380  0.0075
2.3390  0.0076
2.3400  0.0078
2.3410  0.0079
2.3420  0.0078
2.3430  0.0076
2.3440  0.0075
2.3450  0.0074
2.3460  0.0074
2.3470  0.0074
2.3480  0.0074
2.3490  0.0074
2.3500  0.0074
2.3510  0.0073
2.3520  0.0071
2.3530  0.0069
2.3540  0.0069
2.3550  0.0068
2.3560  0.0068
2.3570  0.0067
2.3580  0.0066
2.3590  0.0065
2.3600  0.0065
2.3610  0.0065
2.3620  0.0066
2.3630  0.0066
2.3640  0.0066
2.3650  0.0066
2.3660  0.0064
2.3670  0.0062
2.3680  0.0061
2.3690  0.0061
2.3700  0.0062
2.3710  0.0063
2.3720  0.0065
2.3730  0.0066
2.3740  0.0066
2.3750  0.0065
2.3760  0.0064
2.3770  0.0063
2.3780  0.0062
2.3790  0.0061
2.3800  0.0061
2.3810  0.0062
2.3820  0.0063
2.3830  0.0063
2.3840  0.0063
2.3850  0.0063
2.3860  0.0063
2.3870  0.0063
2.3880  0.0063
2.3890  0.0062
2.3900  0.0061
2.3910  0.0059
2.3920  0.0058
2.3930  0.0058
2.3940  0.0058
2.3950  0.0057
2.3960  0.0056
2.3970  0.0054
2.3980  0.0053
2.3990  0.0053
2.4000  0.0053
2.4010  0.0052
2.4020  0.0051
2.4030  0.0049
2.4040  0.0047
2.4050  0.0046
2.4060  0.0045
2.4070  0.0045
2.4080  0.0046
2.4090  0.0046
2.4100  0.0045
2.4110  0.0045
2.4120  0.0044
2.4130  0.0044
2.4140  0.0044
2.4150  0.0044
2.4160  0.0044
2.4170  0.0044
2.4180  0.0044
2.4190  0.0044
2.4200  0.0044
2.4210  0.0044
2.4220  0.0044
2.4230  0.0044
2.4240  0.0044
2.4250  0.0044
2.4260  0.0044
2.4270  0.0044
2.4280  0.0044
2.4290  0.0044
2.4300  0.0044
2.4310  0.0044
2.4320  0.0044
2.4330  0.0044
2.4340  0.0044
2.4350  0.0044
2.4360  0.0044
2.4370  0.0044
2.4380  0.0044
2.4390  0.0044
2.4400  0.0044
2.4410  0.0044
2.4420  0.0044
2.4430  0.0044
2.4440  0.0044
2.4450  0.0044
2.4460  0.0044
2.4470  0.0044
2.4480  0.0044
2.4490  0.0044
2.4500  0.0044
2.4510  0.0044
2.4520  0.0044
2.4530  0.0044
2.4540  0.0044
2.4550  0.0044
2.4560  0.0044
2.4570  0.0044
2.4580  0.0044
2.4590  0.0044
2.4600  0.0044
2.4610  0.0044
2.4620  0.0044
2.4630  0.0044
2.4640  0.0044
2.4650  0.0044
2.4660  0.0044
2.4670  0.0044
2.4680  0.0044
2.4690  0.0044
2.4700  0.0044
2.4710  0.0044
2.4720  0.0044
2.4730  0.0044
2.4740  0.0044
2.4750  0.0044
2.4760  0.0044
2.4770  0.0044
2.4780  0.0044
2.4790  0.0044
2.4800  0.0044
2.4810  0.0044
2.4820  0.0044
2.4830  0.0044
2.4840  0.0044
2.4850  0.0044
2.4860  0.0044
2.4870  0.0044
2.4880  0.0044
2.4890  0.0044
2.4900  0.0044
2.4910  0.0044
2.4920  0.0044
2.4930  0.0044
2.4940  0.0044
2.4950  0.0044
2.4960  0.0044
2.4970  0.0044
2.4980  0.0044
2.4990  0.0044
2.5000  0.0044
