# Seawater Albedo
# From the USGS Spectral Library
0.2051  0.0360
0.2131  0.0360
0.2211  0.0360
0.2291  0.0360
0.2361  0.0360
0.2421  0.0360
0.2481  0.0360
0.2536  0.0360
0.2586  0.0360
0.2636  0.0360
0.2686  0.0360
0.2731  0.0360
0.2771  0.0360
0.2811  0.0360
0.2851  0.0360
0.2891  0.0360
0.2931  0.0360
0.2971  0.0362
0.3011  0.0366
0.3051  0.0370
0.3091  0.0375
0.3131  0.0379
0.3171  0.0384
0.3211  0.0388
0.3251  0.0392
0.3291  0.0397
0.3331  0.0401
0.3371  0.0406
0.3411  0.0410
0.3451  0.0415
0.3491  0.0420
0.3531  0.0424
0.3571  0.0429
0.3606  0.0433
0.3636  0.0437
0.3666  0.0440
0.3696  0.0444
0.3726  0.0447
0.3756  0.0451
0.3786  0.0455
0.3811  0.0458
0.3831  0.0460
0.3851  0.0462
0.3871  0.0465
0.3891  0.0467
0.3911  0.0470
0.3931  0.0472
0.3951  0.0475
0.3971  0.0477
0.3991  0.0480
0.4011  0.0482
0.4031  0.0485
0.4051  0.0487
0.4071  0.0488
0.4091  0.0487
0.4111  0.0486
0.4128  0.0486
0.4158  0.0486
0.4188  0.0483
0.4218  0.0480
0.4248  0.0477
0.4278  0.0475
0.4308  0.0471
0.4338  0.0465
0.4368  0.0460
0.4398  0.0455
0.4428  0.0449
0.4458  0.0444
0.4488  0.0439
0.4513  0.0436
0.4533  0.0435
0.4553  0.0435
0.4573  0.0434
0.4593  0.0432
0.4613  0.0431
0.4633  0.0430
0.4653  0.0429
0.4673  0.0427
0.4693  0.0425
0.4713  0.0423
0.4733  0.0420
0.4753  0.0416
0.4773  0.0413
0.4793  0.0410
0.4813  0.0407
0.4833  0.0403
0.4853  0.0398
0.4873  0.0392
0.4893  0.0386
0.4913  0.0380
0.4933  0.0373
0.4953  0.0366
0.4973  0.0358
0.4993  0.0351
0.5013  0.0343
0.5033  0.0334
0.5053  0.0327
0.5073  0.0320
0.5093  0.0313
0.5113  0.0307
0.5133  0.0302
0.5153  0.0298
0.5173  0.0294
0.5193  0.0291
0.5213  0.0289
0.5233  0.0287
0.5253  0.0285
0.5273  0.0283
0.5293  0.0281
0.5313  0.0279
0.5333  0.0276
0.5353  0.0274
0.5373  0.0272
0.5393  0.0270
0.5413  0.0268
0.5433  0.0266
0.5453  0.0263
0.5473  0.0261
0.5493  0.0260
0.5513  0.0258
0.5533  0.0256
0.5553  0.0254
0.5573  0.0252
0.5593  0.0250
0.5613  0.0249
0.5633  0.0247
0.5653  0.0246
0.5673  0.0244
0.5693  0.0242
0.5713  0.0240
0.5733  0.0238
0.5753  0.0236
0.5773  0.0234
0.5793  0.0232
0.5813  0.0230
0.5833  0.0228
0.5853  0.0226
0.5873  0.0224
0.5893  0.0222
0.5913  0.0221
0.5933  0.0219
0.5953  0.0217
0.5973  0.0216
0.5993  0.0215
0.6011  0.0214
0.6027  0.0213
0.6043  0.0213
0.6059  0.0212
0.6075  0.0212
0.6091  0.0211
0.6107  0.0211
0.6123  0.0211
0.6139  0.0211
0.6155  0.0210
0.6171  0.0210
0.6187  0.0210
0.6203  0.0210
0.6219  0.0210
0.6235  0.0210
0.6251  0.0209
0.6267  0.0209
0.6283  0.0209
0.6299  0.0209
0.6317  0.0209
0.6337  0.0209
0.6357  0.0208
0.6377  0.0208
0.6397  0.0208
0.6417  0.0208
0.6437  0.0208
0.6457  0.0208
0.6477  0.0208
0.6497  0.0207
0.6517  0.0207
0.6537  0.0207
0.6557  0.0207
0.6577  0.0207
0.6597  0.0206
0.6617  0.0206
0.6637  0.0206
0.6657  0.0206
0.6677  0.0206
0.6702  0.0206
0.6732  0.0206
0.6762  0.0206
0.6792  0.0205
0.6822  0.0205
0.6852  0.0205
0.6882  0.0205
0.6912  0.0204
0.6942  0.0204
0.6972  0.0204
0.7002  0.0203
0.7020  0.0203
0.7040  0.0203
0.7060  0.0203
0.7080  0.0203
0.7100  0.0203
0.7120  0.0202
0.7140  0.0202
0.7160  0.0202
0.7180  0.0202
0.7200  0.0202
0.7220  0.0202
0.7240  0.0201
0.7260  0.0201
0.7280  0.0201
0.7300  0.0201
0.7320  0.0200
0.7340  0.0200
0.7360  0.0200
0.7380  0.0200
0.7400  0.0200
0.7420  0.0200
0.7440  0.0200
0.7460  0.0200
0.7480  0.0200
0.7505  0.0200
0.7535  0.0200
0.7565  0.0200
0.7595  0.0200
0.7625  0.0200
0.7655  0.0199
0.7685  0.0199
0.7715  0.0199
0.7745  0.0199
0.7775  0.0199
0.7810  0.0199
0.7850  0.0199
0.7890  0.0199
0.7930  0.0199
0.7970  0.0199
0.8015  0.0199
0.8065  0.0199
0.8115  0.0198
0.8165  0.0198
0.8220  0.0198
0.8280  0.0198
0.8350  0.0198
0.8430  0.0198
0.8510  0.0197
0.8590  0.0198
0.8710  0.0198
0.8830  0.0198
0.8940  0.0198
0.9040  0.0199
0.9140  0.0198
0.9240  0.0198
0.9330  0.0198
0.9410  0.0198
0.9490  0.0197
0.9570  0.0197
0.9640  0.0197
0.9700  0.0197
0.9760  0.0197
0.9820  0.0197
0.9880  0.0197
0.9940  0.0197
1.0000  0.0196
1.0060  0.0196
1.0120  0.0196
1.0180  0.0196
1.0235  0.0196
1.0285  0.0196
1.0335  0.0196
1.0385  0.0195
1.0435  0.0195
1.0485  0.0195
1.0535  0.0195
1.0585  0.0195
1.0635  0.0195
1.0685  0.0195
1.0735  0.0195
1.0785  0.0195
1.0835  0.0195
1.0885  0.0195
1.0935  0.0195
1.0985  0.0194
1.1035  0.0194
1.1085  0.0194
1.1135  0.0194
1.1185  0.0194
1.1235  0.0194
1.1285  0.0194
1.1335  0.0194
1.1385  0.0194
1.1435  0.0194
1.1485  0.0194
1.1535  0.0194
1.1585  0.0194
1.1635  0.0194
1.1685  0.0194
1.1735  0.0193
1.1785  0.0193
1.1835  0.0193
1.1885  0.0193
1.1935  0.0193
1.1985  0.0193
1.2035  0.0193
1.2085  0.0193
1.2135  0.0193
1.2185  0.0193
1.2235  0.0193
1.2285  0.0193
1.2335  0.0193
1.2385  0.0192
1.2435  0.0192
1.2485  0.0192
1.2535  0.0192
1.2585  0.0192
1.2635  0.0192
1.2685  0.0192
1.2735  0.0192
1.2785  0.0192
1.2835  0.0192
1.2885  0.0192
1.2935  0.0191
1.2985  0.0191
1.3035  0.0191
1.3085  0.0191
1.3135  0.0191
1.3185  0.0191
1.3235  0.0191
1.3285  0.0191
1.3335  0.0190
1.3385  0.0190
1.3435  0.0190
1.3485  0.0190
1.3535  0.0190
1.3585  0.0190
1.3635  0.0190
1.3685  0.0190
1.3735  0.0190
1.3785  0.0190
1.3835  0.0190
1.3885  0.0190
1.3935  0.0190
1.3985  0.0190
1.4035  0.0190
1.4085  0.0190
1.4135  0.0190
1.4185  0.0190
1.4235  0.0190
1.4285  0.0190
1.4335  0.0190
1.4385  0.0190
1.4435  0.0189
1.4485  0.0189
1.4535  0.0189
1.4585  0.0189
1.4635  0.0189
1.4685  0.0189
1.4735  0.0189
1.4785  0.0189
1.4835  0.0189
1.4885  0.0188
1.4935  0.0188
1.4985  0.0188
1.5035  0.0188
1.5085  0.0188
1.5135  0.0188
1.5185  0.0188
1.5235  0.0188
1.5285  0.0188
1.5340  0.0188
1.5400  0.0187
1.5460  0.0187
1.5520  0.0187
1.5580  0.0187
1.5640  0.0187
1.5705  0.0187
1.5775  0.0186
1.5845  0.0186
1.5915  0.0186
1.5985  0.0186
1.6055  0.0186
1.6125  0.0186
1.6195  0.0187
1.6265  0.0187
1.6335  0.0187
1.6405  0.0187
1.6475  0.0186
1.6545  0.0186
1.6615  0.0185
1.6685  0.0185
1.6760  0.0185
1.6840  0.0185
1.6920  0.0185
1.7000  0.0185
1.7080  0.0185
1.7160  0.0185
1.7240  0.0185
1.7320  0.0185
1.7400  0.0185
1.7480  0.0184
1.7560  0.0184
1.7640  0.0184
1.7720  0.0183
1.7800  0.0183
1.7880  0.0183
1.7960  0.0182
1.8050  0.0182
1.8150  0.0182
1.8250  0.0182
1.8350  0.0181
1.8450  0.0181
1.8550  0.0181
1.8650  0.0181
1.8750  0.0180
1.8850  0.0180
1.8950  0.0179
1.9050  0.0179
1.9150  0.0178
1.9250  0.0178
1.9350  0.0177
1.9450  0.0177
1.9550  0.0177
1.9650  0.0177
1.9750  0.0176
1.9850  0.0175
1.9950  0.0174
2.0050  0.0174
2.0150  0.0173
2.0250  0.0173
2.0350  0.0173
2.0450  0.0172
2.0550  0.0172
2.0650  0.0172
2.0750  0.0171
2.0850  0.0171
2.0950  0.0170
2.1050  0.0170
2.1150  0.0169
2.1250  0.0168
2.1350  0.0167
2.1450  0.0167
2.1550  0.0166
2.1650  0.0165
2.1750  0.0165
2.1850  0.0164
2.1950  0.0164
2.2050  0.0163
2.2150  0.0162
2.2250  0.0161
2.2350  0.0161
2.2450  0.0161
2.2550  0.0160
2.2650  0.0159
2.2750  0.0159
2.2850  0.0158
2.2950  0.0157
2.3050  0.0156
2.3150  0.0155
2.3250  0.0155
2.3350  0.0154
2.3450  0.0153
2.3550  0.0152
2.3650  0.0151
2.3750  0.0150
2.3860  0.0148
2.4000  0.0147
2.4180  0.0146
2.4400  0.0144
2.4660  0.0136
2.4960  0.0122
2.5280  0.0104
2.5600  0.0088
2.5920  0.0072
2.6240  0.0055
2.6560  0.0041
2.6880  0.0040
2.7200  0.0040
2.7520  0.0040
2.7840  0.0040
2.8160  0.0040
2.8480  0.0040
2.8800  0.0040
2.9120  0.0040
2.9440  0.0040
2.9760  0.0040
